Derivatives of the galaxy P(k) at mu=0.0,0.5,1.0 and at z=1.0, with bias b=1.0 
omega_c = 0.11923, omega_b =  0.02247, h = 0.677, m_nu = 0.06 eV. Other parameters: A_s = 2.10732*10^-9, n_s = 0.96824,
k | dP_gg / d theta, mu=0 |  dP_gg / d theta, mu = 0.5 | dP_gg / d theta, mu = 1.0 | x4 
0.001     	-13557.3	-16337.1	-30749.7	-13596.4	-16387.1	-30837.7	5693.24 	6869.36 	12969.6	-11602.1	-12725.8	-19578.2
0.00111338	-14915.1	-17962.9	-33811.3	-14965.7	-18048.8	-34053.8	6282.65 	7578.62 	14311. 	-12575.6	-13799.8	-21403.2
0.00137034	-17853.7	-21468.2	-40401.1	-17888.7	-21565.6	-40799.9	7573.89 	9129.73 	17244.9	-14237.7	-15527.2	-24219.1
0.00174995	-21869.4	-26219.8	-49282.1	-21945.5	-26378.7	-49827.9	9377.25 	11293.3 	21352.5	-16803.9	-17922. 	-26766.4
0.00224113	-26482.6	-31607.5	-59263.1	-26539. 	-31738.1	-59745.3	11534.7 	13877.2 	26285.6	-20350.5	-21796.7	-33422.4
0.00285758	-31424.5	-37280.2	-69682.5	-31490.5	-37466.5	-70447.8	13979.1 	16797.4 	31897.4	-26912.3	-30342.1	-52350.4
0.00360874	-36270.2	-42687.5	-79473.6	-36402.8	-43006.5	-80677.7	16587.4 	19902.6 	37921.9	-39895.7	-48314.5	-93620.4
0.00448302	-40516.1	-47193.9	-87372.3	-40745.1	-47646.9	-88859.8	19163.6 	22954.  	43912.7	-57236.3	-73046.8	-152220.
0.00547168	-43765.9	-50319.2	-92487.4	-44186.6	-51050.8	-94611.5	21549.7 	25756.3 	49486.7	-78266.9	-104222.	-229731.
0.0065842 	-45803.3	-51796.4	-94306.8	-46560.3	-52899.2	-96835.1	23651.7 	28197.9 	54451.1	-103257.	-139799.	-312235.
0.00782808	-46433.6	-51422.7	-92572.1	-47850. 	-53342.4	-96433.8	25368.6 	30157.1 	58580.4	-130495.	-179267.	-405930.
0.00919437	-45536. 	-49096.4	-87184.9	-48142.1	-52567.4	-93923.1	26604.4 	31524.6 	61678.8	-158510.	-218121.	-491450.
0.0106756 	-43074.7	-44808.9	-78174.4	-47375.7	-50502.9	-89085. 	27287.7 	32211.1 	63547.5	-184532.	-254539.	-572820.
0.0122792 	-39198.3	-38791.3	-66055.4	-46419.9	-48529.7	-85453.1	27397.9 	32199.6 	64167.7	-211425.	-292555.	-658711.
0.0140114 	-33886.3	-31018.9	-50715.9	-44787.3	-45950.5	-81398.4	26923.3 	31476.7 	63490.9	-229630.	-319158.	-722642.
0.0158646 	-27333.1	-21759.6	-32626.7	-43545.8	-44350.4	-80579.3	25872.2 	30052.9 	61499.3	-244039.	-342146.	-784937.
0.0178321 	-19882.9	-11485.6	-12696.6	-42652.5	-43632.3	-82580.1	24334.9 	28049.8 	58405.8	-258751.	-366955.	-855977.
0.0199202 	-11834.4	-596.945	8330.85 	-42667.5	-44558.7	-88909.1	22394.3 	25571.8 	54371.9	-261586.	-375116.	-890647.
0.022134  	-3422.25	10612.5 	29991.3 	-43712.6	-47267.1	-99699.4	20149.2 	22741.6 	49587.3	-267001.	-386557.	-930361.
0.0244668 	4890.43 	21540.2 	51180.3 	-46439.6	-52522.7	-116005.	17767.8 	19775.8 	44437.5	-258553.	-376563.	-915562.
0.0269127 	12699.7 	31678.9 	71016.5 	-50080.1	-59193.9	-135209.	15416.7 	16878.6 	39256.4	-255927.	-375676.	-923333.
0.0294767 	19686.6 	40626.3 	88752.9 	-55188.5	-67973.2	-158531.	13247.2 	14242.3 	34405.8	-244395.	-360953.	-895536.
0.0321635 	25581.3 	48059.  	103817. 	-61168.4	-77935.3	-183723.	11369.8 	11996.3 	30100.9	-232169.	-344289.	-859270.
0.0349668 	30176.6 	53740.5 	115782. 	-67616.4	-88397.7	-208996.	9887.69 	10267.5 	26601.3	-219344.	-325918.	-815583.
0.0378811 	33422.3 	57627.1 	124499. 	-74032.7	-98610.3	-232706.	8836.82 	9092.18 	23993.9	-204950.	-304344.	-760869.
0.0409108 	35352.2 	59787.3 	130041. 	-79938.5	-107893.	-253514.	8200.17 	8441.69 	22266.5	-192030.	-285183.	-712619.
0.0440599 	36151.2 	60473.7 	132767. 	-84690. 	-115299.	-269370.	7915.21 	8228.16 	21295.7	-179649.	-266784.	-666117.
0.0473226 	36012.9 	59937.2 	132987. 	-87847.3	-120236.	-279252.	7881.28 	8318.65 	20889.7	-169127.	-250969.	-625315.
0.0506937 	35207.  	58529.1 	131229. 	-88853.5	-121946.	-281743.	7963.82 	8538.48 	20779.2	-160519.	-237739.	-590037.
0.054177  	33990.2 	56559.1 	127887. 	-87438. 	-120087.	-276323.	8021.43 	8706.04 	20671. 	-153261.	-226726.	-561214.
0.0577758 	32649.  	54384.4 	123522. 	-83435.7	-114477.	-262831.	7907.67 	8634.23 	20248.5	-147110.	-217560.	-537973.
0.061485  	31398.8 	52260.4 	118513. 	-76906.7	-105276.	-241892.	7511.91 	8185.6  	19279.3	-141555.	-209281.	-517287.
0.0652993 	30416.1 	50409.6 	113324. 	-68383.2	-93286.6	-215373.	6773.41 	7287.91 	17624.9	-136439.	-201918.	-500108.
0.0692222 	29794.2 	48958.1 	108349. 	-58792.4	-79882.6	-186360.	5710.2  	5970.6  	15304.3	-131320.	-194667.	-483852.
0.0732566 	29502.2 	47887.1 	103832. 	-49301.6	-66721.4	-158307.	4426.81 	4374.54 	12518.2	-125110.	-185834.	-464027.
0.0773974 	29428.1 	47091.9 	99951.9 	-41264.8	-55708. 	-135129.	3097.5  	2728.43 	9612.03	-118104.	-175895.	-441708.
0.0816398 	29361.7 	46345.5 	96651.2 	-35702.8	-48258.2	-119645.	1926.45 	1297.26 	7004.5 	-110216.	-164560.	-415448.
0.0859867 	29102.2 	45426.2 	93767.8 	-33144.6	-45076.7	-113138.	1091.7  	309.038 	5064.32	-101724.	-152099.	-385278.
0.0904405 	28484.9 	44145.5 	91041.6 	-33473.5	-45935.5	-114889.	691.313 	-113.947	4004.81	-92921.5	-139099.	-353158.
0.0949964 	27475.5 	42468.7 	88327.4 	-35977.7	-49787.6	-122584.	724.307 	20.3738 	3835.38	-84737.8	-126886.	-322148.
0.0996499 	26123.3 	40445.7 	85467.  	-39538. 	-55022.4	-132792.	1101.34 	591.211 	4393.83	-77561.9	-116067.	-293993.
0.104403  	24528.2 	38172.8 	82295.  	-43012.8	-60029.9	-142221.	1668.99 	1395.79 	5375.97	-71231.4	-106481.	-268794.
0.109259  	22896.4 	35885.  	78931.9 	-44987. 	-62815. 	-146720.	2239.37 	2188.48 	6399.69	-66353. 	-99063.8	-249071.
0.114212  	21385.1 	33742.5 	75359.2 	-44968.8	-62731.2	-145193.	2637.06 	2742.94 	7106.89	-63427.2	-94592.1	-236911.
0.119258  	20097.5 	31835.4 	71510.  	-42366.5	-58978.9	-136091.	2726.62 	2887.32 	7220.7 	-60729.4	-90589.3	-226818.
0.124399  	19137.3 	30282.5 	67586.7 	-37454.8	-51990.1	-120471.	2448.44 	2548.01 	6599.71	-58994.7	-88108.6	-221088.
0.129637  	18475.6 	29046.8 	63669.6 	-31025.5	-42910.2	-100781.	1854.85 	1798.47 	5338.96	-56847.5	-85107.1	-214740.
0.134967  	18059.  	28095.6 	60066.2 	-24604.2	-33916.1	-81633.7	1093.34 	835.051 	3730.24	-55150.4	-82781. 	-210080.
0.140386  	17708.7 	27241.3 	56849.6 	-19518.6	-26865.9	-66778.5	366.182 	-78.6281	2168.02	-51713.4	-77861.4	-199090.
0.145894  	17265.8 	26322.8 	54065.4 	-16761.3	-23131.8	-58926.8	-128.769	-683.853	1068.78	-47763.4	-72107.1	-185545.
0.151494  	16623.8 	25228.8 	51653.6 	-16371. 	-22729.5	-57937.8	-293.63 	-857.339	629.369	-44526.6	-67261.5	-173251.
0.15718   	15762.1 	23936.  	49502.  	-17950.8	-25070.3	-62496.6	-136.019	-612.548	846.349	-40374.8	-60986. 	-157052.
0.162949  	14771.1 	22546.2 	47564.9 	-20429.7	-28628. 	-69406.5	238.635 	-90.3509	1513.24	-36867.3	-55608.1	-142664.
0.168803  	13765.1 	21173.7 	45725.8 	-22551.7	-31627.5	-74982.3	670.966 	500.    	2316.18	-34838.7	-52385.2	-133309.
0.174741  	12839.4 	19902.3 	43830.4 	-23467.8	-32887.5	-76862.7	1013.07 	966.012 	2957.15	-32514.1	-48793.9	-123575.
0.180761  	12079.3 	18808.8 	41794.1 	-22685.9	-31739.2	-73772.2	1146.08 	1153.88 	3188.76	-31159.5	-46719.3	-118017.
0.186858  	11535.9 	17947.9 	39686.8 	-20210.1	-28209.8	-65841.6	1027.81 	1011.3  	2919.88	-30448.9	-45654.8	-115339.
0.193033  	11169.2 	17271.1 	37534.1 	-16809.4	-23407.7	-55462.7	707.825 	605.805 	2245.  	-29166. 	-43814.9	-111292.
0.199288  	10902.4 	16705.  	35468.9 	-13438.7	-18684.3	-45432.9	304.686 	93.7139 	1395.37	-28137.3	-42375.6	-108314.
0.205617  	10628.9 	16145.4 	33596.1 	-11006.5	-15309.4	-38309. 	-34.691 	-332.427	667.74 	-26850.9	-40516.8	-104091.
0.212017  	10265.4 	15510.8 	31962.4 	-10025.6	-13991.5	-35487.5	-205.176	-536.457	275.218	-25134. 	-37960.8	-97809.4
0.21849   	9788.16 	14780.3 	30561.1 	-10397.7	-14571.5	-36554. 	-179.377	-483.985	280.283	-23399.2	-35319.5	-90915.8
0.225035  	9229.67 	13989.1 	29347.  	-11506.9	-16164.5	-39603.6	-3.42887	-237.431	591.528	-21946.2	-33053.2	-84641. 
0.231648  	8655.83 	13201.8 	28234.2 	-12630. 	-17752.9	-42557.8	225.697 	75.7119 	1017.96	-20335.7	-30559.3	-77857.4
0.238326  	8133.94 	12481.9 	27137.  	-13141.9	-18460.1	-43632.4	409.248 	326.155 	1359.56	-19339.3	-28988.9	-73408. 
0.24507   	7710.5  	11869.5 	25989.7 	-12712.3	-17833.1	-41950. 	477.131 	423.182 	1474.06	-18348.6	-27472.3	-69414.3
0.25188   	7400.47 	11377.8 	24797.7 	-11422.2	-15998.6	-37825.1	412.967 	346.703 	1326.33	-17699.6	-26510.2	-67059.6
0.258751  	7174.8  	10975.  	23588.5 	-9728.5 	-13608.5	-32640.3	253.509 	145.771 	985.85 	-17177.6	-25764.1	-65408.9
0.265681  	6981.81 	10610.4 	22427.3 	-8184.73	-11447.7	-28027.5	72.3604 	-82.5985	600.747	-16551. 	-24859.8	-63377.8
0.272669  	6765.63 	10228.6 	21357.6 	-7199.91	-10082.8	-25102. 	-56.6071	-241.978	318.249	-15860.2	-23850.2	-60992.5
0.279716  	6504.79 	9813.28 	20428.6 	-6959.76	-9770.18	-24368.4	-93.4279	-280.625	220.415	-14904.3	-22419.3	-57412.5
0.286817  	6197.39 	9362.27 	19616.8 	-7251.5 	-10199.5	-25135.1	-42.9815	-205.88 	297.711	-13988.6	-21024.7	-53751. 
0.293971  	5872.44 	8904.54 	18885.5 	-7700.13	-10837.9	-26282.8	54.2351 	-70.9006	473.129	-13222.4	-19839.6	-50515.8
0.301176  	5564.22 	8472.38 	18185.5 	-7956.06	-11194.6	-26811.4	145.952 	55.6597 	641.17 	-12585.5	-18851.2	-47793.4
0.308432  	5303.69 	8095.66 	17490.7 	-7799.96	-10965.3	-26120.5	190.361 	119.194 	715.794	-12008.7	-17971.2	-45467.9
0.315736  	5095.54 	7775.26 	16775.8 	-7237.06	-10163.6	-24266. 	174.189 	102.951 	670.439	-11584.1	-17329.5	-43825.1
0.323085  	4930.77 	7501.9  	16057.6 	-6456.74	-9061.98	-21837.4	111.554 	25.9146 	532.742	-11160.5	-16708.7	-42353.7
0.330478  	4782.82 	7248.3  	15357.7 	-5708.55	-8012.33	-19556.4	36.0943 	-67.8298	368.454	-10727.1	-16077.2	-40879.5
0.337914  	4630.78 	6995.63 	14711.2 	-5222.2 	-7336.65	-18079.9	-18.333 	-133.879	245.314	-10353.9	-15529.1	-39555.9
0.345391  	4460.14 	6729.67 	14126.4 	-5049.69	-7103.21	-17521.1	-33.1571	-148.074	202.482	-9859.64	-14787.4	-37683.1
0.352905  	4273.2  	6453.23 	13599.2 	-5095.63	-7174.4 	-17578.2	-11.8059	-115.204	233.13 	-9350.12	-14017.1	-35689. 
0.360457  	4081.88 	6177.82 	13111.1 	-5201.02	-7324.91	-17781.4	27.0671 	-60.0017	299.434	-8916.11	-13352.5	-33912.8
0.368044  	3905.04 	5922.95 	12651.7 	-5210.63	-7336.47	-17683.6	61.0484 	-11.5924	357.846	-8505.22	-12725.7	-32254.5
0.375664  	3750.18 	5693.67 	12196.5 	-5041.03	-7093.68	-17058.2	73.5804 	8.34506 	374.461	-8197.36	-12258.5	-31028.4
0.383315  	3619.01 	5490.97 	11742.3 	-4724.36	-6644.92	-16021.9	61.7315 	-3.97036	342.016	-7898.24	-11811.2	-29905.5
0.390994  	3504.48 	5307.31 	11294.7 	-4348.44	-6115.22	-14837.4	34.7641 	-36.0915	279.698	-7613.53	-11391.1	-28884.6
0.398702  	3396.04 	5132.19 	10864.3 	-4025.4 	-5663.06	-13834.5	6.96761 	-69.2701	215.943	-7347.09	-11001.1	-27947.7
0.406435  	3285.72 	4958.38 	10463.4 	-3811.64	-5365.18	-13154.6	-9.65264	-87.9539	174.342	-7064.71	-10583.3	-26918.3
0.414191  	3168.76 	4780.67 	10090.3 	-3719.49	-5238.85	-12833.1	-10.3575	-85.8132	165.286	-6792.3 	-10172.6	-25862.9
0.421968  	3050.68 	4605.79 	9748.09 	-3697.47	-5210.1 	-12709.7	0.680717	-68.5036	180.175	-6544.18	-9795.84	-24871.7
0.429766  	2936.12 	4437.73 	9426.66 	-3668.96	-5170.01	-12554.7	14.9154 	-47.2654	201.714	-6251.46	-9356.29	-23746. 
0.437581  	2830.3  	4281.21 	9118.11 	-3593.1 	-5061.99	-12257. 	23.9931 	-32.9804	213.68 	-6001.55	-8981.28	-22786. 
0.445411  	2734.5  	4136.52 	8813.01 	-3450.13	-4859.49	-11768.4	24.1785 	-30.4795	208.443	-5813.61	-8698.55	-22057.5
0.453255  	2648.34 	4003.28 	8514.16 	-3263.54	-4595.76	-11157.9	16.6524 	-38.1827	187.735	-5647.16	-8449.98	-21428.9
0.461112  	2568.43 	3878.31 	8226.95 	-3084.94	-4344.57	-10583.9	5.90579 	-50.1856	160.743	-5417.11	-8109.94	-20599. 
0.468978  	2490.38 	3756.9  	7952.43 	-2937.25	-4137.52	-10106.9	-2.60512	-59.2344	138.909	-5261.38	-7877.35	-20011.2
0.476851  	2412.52 	3637.72 	7694.13 	-2839.69	-4001.39	-9780.18	-5.97184	-61.6609	127.102	-5051.84	-7565.36	-19233.9
0.484731  	2334.79 	3520.89 	7453.58 	-2777.49	-3914.74	-9555.9 	-4.12697	-57.3899	125.935	-4866.01	-7285.94	-18519.7
0.492614  	2258.92 	3407.71 	7224.71 	-2725.93	-3842.39	-9359.43	0.346032	-49.7783	130.214	-4714.41	-7055.99	-17917.2
0.5005    	2186.11 	3299.25 	7005.34 	-2666.91	-3759.13	-9140.33	4.54957 	-42.5957	134.274	-4579.35	-6850.96	-17377.6
0.508386  	2118.23 	3197.06 	6791.85 	-2586.9 	-3646.  	-8860.26	5.69339 	-39.5314	132.746	-4401.34	-6584.56	-16706.6
0.516269  	2055.12 	3101.22 	6586.69 	-2490.99	-3510.52	-8536.38	4.13009 	-40.0652	125.928	-4257.97	-6369.81	-16163.4
0.524149  	1996.67 	3011.49 	6389.01 	-2391.65	-3370.67	-8208.26	0.617224	-43.2297	115.229	-4111.92	-6152.05	-15619.7
0.532022  	1940.15 	2924.65 	6197.56 	-2298.12	-3239.27	-7900.79	-2.96946	-46.5551	104.352	-4000.93	-5985.56	-15195.3
0.539888  	1885.5  	2841.21 	6016.65 	-2219.84	-3129.4 	-7639.66	-5.1094 	-48.064 	96.4015	-3867.25	-5785.94	-14694. 
0.547745  	1831.63 	2759.72 	5844.33 	-2158.89	-3043.87	-7429.69	-5.27789	-46.9721	92.8949	-3760.66	-5625.57	-14281.3
0.555589  	1779.5  	2681.36 	5681.75 	-2108.67	-2973.33	-7251.4 	-4.37733	-44.6314	91.3833	-3658.83	-5472.14	-13884.3
0.563419  	1728.6  	2604.9  	5522.67 	-2061.99	-2907.84	-7085.51	-2.97   	-41.5873	91.3541	-3563.31	-5328.05	-13510.1
0.571234  	1680.46 	2532.56 	5372.09 	-2008.  	-2831.75	-6897.34	-2.0862 	-39.3373	90.2635	-3447.54	-5154.79	-13072. 
0.579032  	1634.57 	2463.21 	5225.19 	-1947.8 	-2746.77	-6691.2 	-2.29068	-38.5366	87.3987	-3310.98	-4951.7 	-12569.1
0.586809  	1591.41 	2397.68 	5084.56 	-1887.37	-2661.69	-6487.47	-3.12824	-38.6348	83.0265	-3247.23	-4854.98	-12313.4
0.594565  	1550.3  	2335.09 	4949.35 	-1825.71	-2574.84	-6281.02	-4.42542	-39.3564	78.0066	-3168.47	-4736.3 	-12007.9
0.602298  	1510.68 	2274.85 	4819.75 	-1773.05	-2500.9 	-6103.78	-5.49211	-39.825 	73.4521	-3071.17	-4590.46	-11640.1
0.610006  	1472.08 	2216.34 	4694.83 	-1724.69	-2432.98	-5939.72	-6.03471	-39.6459	69.9976	-2988.14	-4465.13	-11318.4
0.617685  	1434.84 	2160.11 	4576.01 	-1682.38	-2373.6 	-5794.35	-6.03848	-38.791 	67.7987	-2907.96	-4343.86	-11006. 
0.625336  	1398.72 	2105.7  	4461.71 	-1642.5 	-2317.54	-5656.19	-5.67848	-37.4983	66.3816	-2832.04	-4228.95	-10709. 
0.632956  	1363.89 	2053.26 	4351.55 	-1603.75	-2263.05	-5522.09	-5.31755	-36.2409	65.0635	-2757.08	-4115.7 	-10417.6
0.640543  	1330.79 	2003.34 	4246.27 	-1564.23	-2207.41	-5386.16	-5.20469	-35.3403	63.3453	-2687.01	-4009.9 	-10145.4
0.648095  	1299.01 	1955.32 	4144.44 	-1524.3 	-2151.19	-5249.71	-5.27133	-34.7044	61.3493	-2615.18	-3901.88	-9870.27
0.655609  	1268.25 	1908.84 	4045.56 	-1480.34	-2089.08	-5100.62	-5.47408	-34.2779	59.1373	-2542.45	-3792.83	-9594.52
0.663086  	1238.67 	1864.09 	3950.1  	-1436.18	-2026.63	-4951.13	-5.84046	-34.0932	56.6625	-2473.34	-3689.18	-9332.31
0.670522  	1210.36 	1821.24 	3858.54 	-1398.81	-1973.98	-4824.27	-6.24344	-33.9816	54.1841	-2411.35	-3595.91	-9094.58
0.677915  	1183.21 	1780.16 	3770.97 	-1368.31	-1931.23	-4720.04	-6.52321	-33.7297	52.0373	-2355.85	-3512.18	-8879.38
0.685264  	1157.1  	1740.7  	3687.07 	-1342.54	-1895.25	-4631.39	-6.68674	-33.3476	50.1956	-2305.16	-3435.57	-8681.3 
0.692568  	1131.97 	1702.74 	3606.54 	-1319.32	-1862.9 	-4551.13	-6.74622	-32.8511	48.627 	-2257.65	-3363.59	-8494.16
0.699824  	1107.73 	1666.15 	3529.1  	-1296.56	-1831.15	-4472.33	-6.71268	-32.2544	47.3054	-2211.76	-3293.88	-8312.34
0.707029  	1084.31 	1630.83 	3454.47 	-1272.4 	-1797.29	-4388.85	-6.62205	-31.6037	46.1576	-2166.14	-3224.61	-8132.04
0.714183  	1061.68 	1596.72 	3382.42 	-1246.21	-1760.43	-4298.67	-6.52264	-30.9627	45.0743	-2120.59	-3155.61	-7953.34
0.721284  	1039.83 	1563.78 	3312.84 	-1218.37	-1721.1 	-4203.01	-6.42915	-30.3495	44.0238	-2075.41	-3087.26	-7776.99
0.728331  	1018.73 	1531.99 	3245.66 	-1189.7 	-1680.52	-4104.69	-6.35228	-29.7775	42.9805	-2030.88	-3019.92	-7603.54
0.735319  	998.392 	1501.33 	3180.81 	-1161.03	-1639.89	-4006.48	-6.30239	-29.2599	41.9211	-1987.31	-2954.03	-7434.07
0.742249  	978.778 	1471.76 	3118.2  	-1133.13	-1600.35	-3911.02	-6.28928	-28.8082	40.8234	-1944.93	-2890.05	-7269.97
0.74912   	959.871 	1443.25 	3057.74 	-1106.72	-1562.97	-3820.78	-6.32285	-28.4344	39.6663	-1903.99	-2828.38	-7112.38
0.75593   	941.659 	1415.76 	2999.37 	-1082.51	-1528.77	-3738.09	-6.40603	-28.1429	38.436 	-1864.72	-2769.35	-6961.95
0.762674  	924.126 	1389.3  	2943.07 	-1060.79	-1498.15	-3663.81	-6.49282	-27.8703	37.2399	-1827.25	-2713.09	-6818.77
0.769352  	907.209 	1363.77 	2888.83 	-1040.52	-1469.61	-3594.39	-6.54851	-27.5702	36.1486	-1791.48	-2659.38	-6681.98
0.775965  	890.881 	1339.13 	2836.52 	-1021.05	-1442.19	-3527.68	-6.57902	-27.2503	35.1463	-1757.27	-2607.96	-6550.75
0.78251   	875.126 	1315.37 	2786.09 	-1002.38	-1415.89	-3463.61	-6.59074	-26.9184	34.2188	-1724.52	-2558.66	-6424.55
0.788983  	859.927 	1292.45 	2737.47 	-984.494	-1390.7 	-3402.22	-6.58953	-26.582 	33.3529	-1693.14	-2511.4 	-6303.47
0.795383  	845.26  	1270.33 	2690.58 	-967.386	-1366.62	-3343.47	-6.58096	-26.2477	32.535 	-1663.02	-2466.11	-6187.67
0.801712  	831.101 	1248.98 	2645.32 	-951.044	-1343.61	-3287.32	-6.57019	-25.9221	31.7513	-1634.06	-2422.67	-6076.95
0.807967  	817.434 	1228.38 	2601.64 	-935.464	-1321.69	-3233.78	-6.56257	-25.6117	30.9896	-1606.16	-2380.86	-5970.51
0.814142  	804.248 	1208.5  	2559.48 	-920.644	-1300.85	-3182.85	-6.5593 	-25.3187	30.2419	-1579.26	-2340.48	-5867.48
0.820239  	791.519 	1189.31 	2518.76 	-906.505	-1280.99	-3134.28	-6.55072	-25.0289	29.5341	-1553.26	-2301.34	-5767.27
0.826259  	779.219 	1170.77 	2479.44 	-892.695	-1261.57	-3086.85	-6.52946	-24.7316	28.8816	-1528.09	-2263.41	-5669.94
0.832197  	767.338 	1152.86 	2441.49 	-878.958	-1242.23	-3039.66	-6.49841	-24.4309	28.2759	-1503.77	-2226.73	-5575.8 
0.838051  	755.869 	1135.58 	2404.87 	-865.357	-1223.05	-2992.9 	-6.46126	-24.1315	27.7085	-1480.27	-2191.33	-5485.07
0.84382   	744.795 	1118.9  	2369.53 	-851.978	-1204.17	-2946.91	-6.42122	-23.8371	27.1707	-1457.56	-2157.17	-5397.71
0.849506  	734.099 	1102.79 	2335.4  	-838.897	-1185.71	-2901.95	-6.38125	-23.5514	26.655 	-1435.63	-2124.23	-5313.62
0.855106  	723.776 	1087.24 	2302.47 	-826.196	-1167.78	-2858.34	-6.34407	-23.2776	26.1544	-1414.46	-2092.48	-5232.78
0.860614  	713.818 	1072.24 	2270.7  	-813.951	-1150.5 	-2816.33	-6.31217	-23.0192	25.6626	-1394.04	-2061.9 	-5155.02
0.866033  	704.211 	1057.77 	2240.05 	-802.218	-1133.95	-2776.09	-6.28781	-22.7786	25.1735	-1374.35	-2032.41	-5080.09
0.871363  	694.938 	1043.8  	2210.44 	-791.044	-1118.19	-2737.76	-6.27351	-22.5588	24.6811	-1355.35	-2003.95	-5007.73
0.876601  	685.995 	1030.33 	2181.86 	-780.484	-1103.31	-2701.53	-6.26648	-22.3567	24.1862	-1337.04	-1976.5 	-4937.84
0.881742  	677.381 	1017.34 	2154.31 	-770.563	-1089.34	-2667.47	-6.25928	-22.1613	23.7114	-1319.42	-1950.04	-4870.4 
0.886788  	669.073 	1004.83 	2127.74 	-761.123	-1076.06	-2635.03	-6.24549	-21.9632	23.2727	-1302.43	-1924.53	-4805.32
0.891741  	661.056 	992.749 	2102.12 	-751.959	-1063.15	-2603.54	-6.22444	-21.7621	22.8665	-1286.05	-1899.93	-4742.56
0.896597  	653.327 	981.106 	2077.44 	-743.002	-1050.53	-2572.74	-6.19836	-21.5606	22.488 	-1270.27	-1876.25	-4682.13
0.90135   	645.882 	969.893 	2053.67 	-734.277	-1038.23	-2542.74	-6.16886	-21.3608	22.1331	-1255.1 	-1853.46	-4623.99
0.906004  	638.709 	959.091 	2030.78 	-725.796	-1026.27	-2513.58	-6.13735	-21.1644	21.7979	-1240.49	-1831.52	-4568.  
0.91056   	631.794 	948.678 	2008.73 	-717.57 	-1014.67	-2485.29	-6.10507	-20.9726	21.4789	-1226.42	-1810.39	-4514.04
0.915013  	625.135 	938.652 	1987.49 	-709.618	-1003.45	-2457.96	-6.07317	-20.787 	21.1734	-1212.9 	-1790.06	-4462.08
0.91936   	618.73  	929.01  	1967.08 	-701.958	-992.645	-2431.64	-6.04265	-20.6089	20.8791	-1199.91	-1770.53	-4412.13
0.923603  	612.568 	919.733 	1947.43 	-694.595	-982.258	-2406.34	-6.01435	-20.439 	20.5936	-1187.44	-1751.77	-4364.18
0.927743  	606.636 	910.803 	1928.51 	-687.528	-972.289	-2382.05	-5.98897	-20.278 	20.3143	-1175.45	-1733.77	-4318.2 
0.931778  	600.933 	902.218 	1910.33 	-680.768	-962.756	-2358.81	-5.96714	-20.1269	20.0397	-1163.94	-1716.51	-4274.21
0.935701  	595.46  	893.978 	1892.87 	-674.327	-953.671	-2336.66	-5.94961	-19.9864	19.7685	-1152.92	-1700.  	-4232.25
0.939515  	590.205 	886.065 	1876.1  	-668.2  	-945.03 	-2315.57	-5.93631	-19.8566	19.4989	-1142.35	-1684.21	-4192.21
0.943224  	585.156 	878.464 	1859.98 	-662.378	-936.824	-2295.53	-5.92551	-19.735 	19.2327	-1132.22	-1669.1 	-4153.98
0.946823  	580.316 	871.175 	1844.52 	-656.869	-929.059	-2276.56	-5.91553	-19.619 	18.976 	-1122.53	-1654.66	-4117.51
0.950306  	575.686 	864.202 	1829.72 	-651.657	-921.717	-2258.6 	-5.90494	-19.5065	18.7341	-1113.26	-1640.87	-4082.76
0.953677  	571.253 	857.526 	1815.56 	-646.688	-914.719	-2241.48	-5.8926 	-19.3957	18.5087	-1104.4 	-1627.7 	-4049.6 
0.95694   	567.006 	851.132 	1802.   	-641.913	-907.992	-2225.03	-5.87835	-19.2863	18.298 	-1095.93	-1615.11	-4017.93
0.960089  	562.947 	845.022 	1789.05 	-637.305	-901.5  	-2209.17	-5.86281	-19.1794	18.1011	-1087.84	-1603.1 	-3987.72
0.963119  	559.08  	839.201 	1776.71 	-632.866	-895.242	-2193.89	-5.84648	-19.0755	17.9173	-1080.14	-1591.67	-3958.99
0.966033  	555.394 	833.653 	1764.95 	-628.595	-889.219	-2179.19	-5.82968	-18.9748	17.7451	-1072.8 	-1580.78	-3931.62
0.968837  	551.88  	828.364 	1753.75 	-624.489	-883.428	-2165.06	-5.81267	-18.8775	17.5834	-1065.82	-1570.41	-3905.53
0.971523  	548.54  	823.338 	1743.1  	-620.56 	-877.883	-2151.53	-5.79572	-18.7841	17.4317	-1059.18	-1560.55	-3880.73
0.974087  	545.379 	818.581 	1733.03 	-616.819	-872.603	-2138.66	-5.7791 	-18.6949	17.2896	-1052.9 	-1551.22	-3857.23
0.976533  	542.386 	814.078 	1723.49 	-613.26 	-867.579	-2126.4 	-5.76293	-18.6099	17.1561	-1046.96	-1542.38	-3834.97
0.978866  	539.553 	809.815 	1714.46 	-609.878	-862.802	-2114.76	-5.74734	-18.5291	17.0305	-1041.34	-1534.01	-3813.85
0.98108   	536.883 	805.798 	1705.95 	-606.68 	-858.286	-2103.75	-5.73245	-18.4527	16.9125	-1036.04	-1526.12	-3793.92
0.983168  	534.381 	802.034 	1697.98 	-603.677	-854.043	-2093.4 	-5.71841	-18.381 	16.8023	-1031.08	-1518.73	-3775.23
0.985135  	532.038 	798.51  	1690.52 	-600.86 	-850.063	-2083.7 	-5.70523	-18.3139	16.6991	-1026.43	-1511.79	-3757.7 
0.986989  	529.845 	795.21  	1683.53 	-598.219	-846.331	-2074.6 	-5.69292	-18.2511	16.6025	-1022.07	-1505.3 	-3741.27
0.988721  	527.805 	792.142 	1677.04 	-595.762	-842.859	-2066.14	-5.68154	-18.1928	16.5125	-1018.03	-1499.26	-3725.98
0.990324  	525.927 	789.316 	1671.05 	-593.498	-839.66 	-2058.34	-5.67114	-18.1393	16.4295	-1014.3 	-1493.7 	-3711.9 
0.991806  	524.201 	786.719 	1665.55 	-591.417	-836.72 	-2051.17	-5.66169	-18.0902	16.3529	-1010.87	-1488.59	-3698.94
0.993172  	522.615 	784.333 	1660.5  	-589.507	-834.02 	-2044.59	-5.65311	-18.0453	16.2823	-1007.72	-1483.89	-3687.03
0.994416  	521.177 	782.17  	1655.92 	-587.775	-831.573	-2038.63	-5.64543	-18.0047	16.2181	-1004.87	-1479.62	-3676.23
0.995528  	519.895 	780.242 	1651.84 	-586.233	-829.394	-2033.32	-5.63869	-17.9687	16.1606	-1002.32	-1475.82	-3666.61
0.996517  	518.76  	778.534 	1648.22 	-584.868	-827.465	-2028.62	-5.6328 	-17.9369	16.1095	-1000.07	-1472.45	-3658.08
0.997391  	517.759 	777.028 	1645.03 	-583.665	-825.766	-2024.47	-5.62769	-17.909 	16.0643	-998.077	-1469.49	-3650.55
0.998142  	516.901 	775.737 	1642.3  	-582.635	-824.311	-2020.93	-5.62336	-17.8852	16.0254	-996.371	-1466.94	-3644.11
0.998759  	516.198 	774.68  	1640.06 	-581.792	-823.12 	-2018.02	-5.61985	-17.8657	15.9935	-994.975	-1464.85	-3638.82
0.99925   	515.639 	773.84  	1638.28 	-581.122	-822.173	-2015.72	-5.6171 	-17.8502	15.968 	-993.864	-1463.2 	-3634.62
0.99963   	515.208 	773.191 	1636.9  	-580.605	-821.443	-2013.94	-5.61499	-17.8383	15.9483	-993.006	-1461.92	-3631.38
0.999887  	514.916 	772.752 	1635.97 	-580.256	-820.949	-2012.73	-5.61357	-17.8303	15.9349	-992.426	-1461.05	-3629.19
1.        	514.788 	772.558 	1635.56 	-580.102	-820.732	-2012.2 	-5.61295	-17.8267	15.9291	-992.17 	-1460.67	-3628.22